#All ephemerides over DATES
#Observation possible?	Date	Spacecraft RA (deg);		Spacecraft DEC (deg);	Spacecraft Elevation (?);	In Eclipse? (no=0,yes=1);	Moon RA (deg);	Moon Dec (deg);	Lunar Phase (per/full)
1.000000	43193.060333	212.510708	-26.377111	712911.562500	1.000000	242.307458	-16.159750	13.554583	5.801083	0.690370
1.000000	43193.067277	200.868500	-61.878667	726387.125000	1.000000	242.394833	-16.178306	13.560917	5.803750	0.691847
1.000000	43193.115888	224.102667	41.555556	709239.812500	1.000000	243.006750	-16.307111	13.605333	5.822250	0.702190
1.000000	43193.122833	217.522417	5.598306	705625.625000	1.000000	243.094167	-16.325361	13.611667	5.824889	0.703667
1.000000	43193.129777	211.824500	-30.379861	714397.500000	1.000000	243.181583	-16.343556	13.618000	5.827528	0.705145
1.000000	43193.136722	197.930708	-65.709556	727522.000000	1.000000	243.269042	-16.361722	13.624333	5.830167	0.706622
1.000000	43193.185333	223.185833	37.560722	708406.187500	1.000000	243.881167	-16.487806	13.668708	5.848667	0.716965
1.000000	43193.192277	217.003958	1.578583	705974.187500	1.000000	243.968625	-16.505667	13.675083	5.851333	0.718442
1.000000	43193.199222	211.073875	-34.377361	715947.375000	1.000000	244.056083	-16.523500	13.681417	5.853972	0.719920
1.000000	43193.206166	193.959292	-69.460639	728497.812500	1.000000	244.143542	-16.541278	13.687750	5.856611	0.721397
1.000000	43193.254777	222.369583	33.558889	707635.937500	1.000000	244.755875	-16.664639	13.732125	5.875111	0.731740
1.000000	43193.261722	216.487792	-2.440722	706499.250000	1.000000	244.843333	-16.682111	13.738458	5.877750	0.733218
1.000000	43193.268666	210.241208	-38.368306	717536.187500	1.000000	244.930833	-16.699528	13.744833	5.880389	0.734695
1.000000	43193.324222	221.631917	29.551722	706951.062500	1.000000	245.630875	-16.837528	13.795542	5.901528	0.746515
1.000000	43193.331166	215.968208	-6.459194	707197.750000	1.000000	245.718375	-16.854611	13.801875	5.904167	0.747993
1.000000	43193.338110	209.303375	-42.351028	719137.812500	1.000000	245.805917	-16.871639	13.808250	5.906806	0.749470
1.000000	43193.393666	220.955917	25.540472	706372.062500	1.000000	246.506167	-17.006500	13.858958	5.927944	0.761290
1.000000	43193.400610	215.439292	-10.476389	708063.062500	1.000000	246.593708	-17.023167	13.865333	5.930583	0.762768
1.000000	43193.407555	208.229500	-46.323250	720725.375000	1.000000	246.681292	-17.039806	13.871667	5.933222	0.764245
1.000000	43193.463110	220.328250	21.526139	705917.500000	1.000000	247.381792	-17.171472	13.922375	5.954333	0.776065
1.000000	43193.470055	214.894708	-14.491861	709085.187500	1.000000	247.469375	-17.187750	13.928750	5.956972	0.777543
1.000000	43193.476999	206.976958	-50.281889	722272.125000	1.000000	247.556958	-17.204000	13.935083	5.959611	0.779020
1.000000	43193.532555	219.738208	17.509528	705603.625000	1.000000	248.257708	-17.332472	13.985833	5.980722	0.790840
1.000000	43193.539499	214.327583	-18.505111	710250.875000	1.000000	248.345292	-17.348361	13.992167	5.983361	0.792318
1.000000	43193.546444	205.485125	-54.222417	723751.437500	1.000000	248.432917	-17.364194	13.998500	5.986000	0.793795
1.000000	43193.595055	226.926042	49.370667	710981.687500	1.000000	249.046250	-17.473917	14.042917	6.004472	0.804138
1.000000	43193.601999	219.176708	13.491333	705444.000000	1.000000	249.133917	-17.489444	14.049250	6.007111	0.805615
1.000000	43193.608944	213.729958	-22.515528	711543.750000	1.000000	249.221542	-17.504917	14.055583	6.009750	0.807093
1.000000	43193.615888	203.664875	-58.138139	725137.750000	1.000000	249.309167	-17.520361	14.061958	6.012389	0.808570
1.000000	43193.664499	225.715917	45.396694	710089.375000	1.000000	249.922708	-17.627278	14.106333	6.030861	0.818913
1.000000	43193.671444	218.636208	9.472139	705449.187500	1.000000	250.010375	-17.642361	14.112708	6.033500	0.820391
1.000000	43193.678388	213.092583	-26.522444	712944.750000	1.000000	250.098042	-17.657444	14.119042	6.036111	0.821868
1.000000	43193.685333	201.379792	-62.018750	726406.812500	1.000000	250.185708	-17.672472	14.125375	6.038750	0.823346
1.000000	43193.733944	224.674375	41.410667	709214.812500	1.000000	250.799458	-17.776528	14.169792	6.057222	0.833688
1.000000	43193.740888	218.109833	5.452417	705626.500000	1.000000	250.887167	-17.791222	14.176125	6.059861	0.835166
1.000000	43193.747833	212.404208	-30.525083	714432.500000	1.000000	250.974833	-17.805889	14.182458	6.062500	0.836643
1.000000	43193.754777	198.411625	-65.847361	727536.312500	1.000000	251.062542	-17.820528	14.188833	6.065139	0.838121
1.000000	43193.803388	223.761542	37.415500	708381.375000	1.000000	251.676500	-17.921722	14.233208	6.083583	0.848463
1.000000	43193.810333	217.591500	1.432694	705979.875000	1.000000	251.764208	-17.936000	14.239583	6.086222	0.849941
1.000000	43193.817277	211.650833	-34.522417	715983.375000	1.000000	251.851917	-17.950250	14.245917	6.088861	0.851418
1.000000	43193.824222	194.392417	-69.594750	728506.187500	1.000000	251.939625	-17.964472	14.252250	6.091472	0.852896
1.000000	43193.872833	222.948375	33.413444	707612.125000	1.000000	252.553750	-18.062778	14.296667	6.109944	0.863238
1.000000	43193.879777	217.075250	-2.586639	706509.687500	1.000000	252.641500	-18.076667	14.303000	6.112556	0.864716
1.000000	43193.886722	210.814667	-38.513167	717572.312500	1.000000	252.729250	-18.090500	14.309375	6.115194	0.866193
1.000000	43193.942277	222.213125	29.406056	706929.000000	1.000000	253.431292	-18.199722	14.360125	6.136278	0.878013
1.000000	43193.949222	216.555375	-6.605139	707212.875000	1.000000	253.519083	-18.213194	14.366458	6.138917	0.879491
1.000000	43193.956166	209.872375	-42.495583	719173.250000	1.000000	253.606833	-18.226611	14.372833	6.141556	0.880968
1.000000	43194.011722	221.539000	25.394639	706352.437500	1.000000	254.309083	-18.332528	14.423583	6.162611	0.892788
1.000000	43194.018666	216.025917	-10.622333	708082.625000	1.000000	254.396875	-18.345583	14.429917	6.165250	0.894266
1.000000	43194.025610	208.792708	-46.467444	720759.312500	1.000000	254.484667	-18.358583	14.436292	6.167889	0.895743
1.000000	43194.081166	220.912833	21.380194	705900.937500	1.000000	255.187125	-18.461167	14.487042	6.188944	0.907564
1.000000	43194.088110	215.480583	-14.637806	709108.875000	1.000000	255.274958	-18.473778	14.493375	6.191583	0.909041
1.000000	43194.095055	207.532500	-50.425556	722303.625000	1.000000	255.362750	-18.486389	14.499750	6.194194	0.910519
1.000000	43194.150610	220.323875	17.363472	705590.687500	1.000000	256.065375	-18.585583	14.550500	6.215250	0.922339
1.000000	43194.157555	214.912375	-18.651000	710278.187500	1.000000	256.153208	-18.597806	14.556833	6.217889	0.923816
1.000000	43194.164499	206.030333	-54.365361	723779.750000	1.000000	256.241042	-18.609972	14.563208	6.220528	0.925294
1.000000	43194.213110	227.485750	49.226278	710957.812500	1.000000	256.856000	-18.694000	14.607625	6.238944	0.935636
1.000000	43194.220055	219.763208	13.345194	705435.125000	1.000000	256.943875	-18.705833	14.613958	6.241556	0.937114
1.000000	43194.226999	214.313417	-22.661361	711574.187500	1.000000	257.031708	-18.717611	14.620333	6.244194	0.938591
1.000000	43194.233944	204.195667	-58.280083	725162.062500	1.000000	257.119583	-18.729361	14.626667	6.246833	0.940069
1.000000	43194.282555	226.282458	45.251806	710064.125000	1.000000	257.734667	-18.810444	14.671083	6.265250	0.950411
1.000000	43194.289499	219.223250	9.325917	705444.750000	1.000000	257.822542	-18.821861	14.677458	6.267861	0.951889
1.000000	43194.296444	213.674333	-26.668194	712977.750000	1.000000	257.910417	-18.833222	14.683792	6.270500	0.953366
1.000000	43194.303388	201.889958	-62.159194	726426.437500	1.000000	257.998292	-18.844556	14.690125	6.273139	0.954844
1.000000	43194.351999	225.246083	41.265333	709188.875000	1.000000	258.613542	-18.922639	14.734583	6.291528	0.965186
1.000000	43194.358944	218.697208	5.306139	705626.750000	1.000000	258.701417	-18.933639	14.740917	6.294167	0.966664
1.000000	43194.365888	212.983750	-30.670722	714467.187500	1.000000	258.789333	-18.944583	14.747250	6.296778	0.968141
1.000000	43194.372833	198.890792	-65.985472	727550.625000	1.000000	258.877208	-18.955472	14.753625	6.299417	0.969619
1.000000	43194.421444	224.337250	37.269889	708355.687500	1.000000	259.492542	-19.030583	14.798042	6.317806	0.979961
1.000000	43194.428388	218.178958	1.286361	705985.000000	1.000000	259.580458	-19.041167	14.804417	6.320444	0.981439
1.000000	43194.435333	212.227625	-34.667889	716019.062500	1.000000	259.668375	-19.051667	14.810750	6.323083	0.982916
1.000000	43194.442277	194.822833	-69.729083	728514.562500	1.000000	259.756292	-19.062139	14.817083	6.325694	0.984394
1.000000	43194.490888	223.527167	33.267556	707587.437500	1.000000	260.371750	-19.134278	14.861542	6.344083	0.994736
1.000000	43194.497833	217.662625	-2.733000	706519.687500	1.000000	260.459708	-19.144417	14.867875	6.346722	0.996214
1.000000	43194.504777	211.387917	-38.658417	717608.250000	1.000000	260.547625	-19.154500	14.874250	6.349333	0.997692
1.000000	43194.560333	222.794333	29.260000	706906.062500	1.000000	261.251125	-19.233694	14.925000	6.370361	1.009512
1.000000	43194.567277	217.142417	-6.751500	707227.500000	1.000000	261.339083	-19.243417	14.931375	6.373000	1.010989
1.000000	43194.574222	210.441125	-42.640556	719208.500000	1.000000	261.427000	-19.253056	14.937708	6.375611	1.012467
1.000000	43194.629777	222.122083	25.248417	706332.000000	1.000000	262.130625	-19.328833	14.988500	6.396611	1.024287
1.000000	43194.636722	216.612417	-10.768694	708101.812500	1.000000	262.218583	-19.338111	14.994875	6.399250	1.025764
1.000000	43194.643666	209.355583	-46.612028	720793.062500	1.000000	262.306542	-19.347333	15.001208	6.401861	1.027242
1.000000	43194.699222	221.497333	21.233833	705883.625000	1.000000	263.010250	-19.419639	15.052000	6.422861	1.039062
1.000000	43194.706166	216.066333	-14.784139	709132.187500	1.000000	263.098208	-19.428500	15.058375	6.425500	1.040539
1.000000	43194.713110	208.087583	-50.569639	722335.000000	1.000000	263.186167	-19.437278	15.064708	6.428111	1.042017
1.000000	43194.768666	220.909500	17.217000	705577.000000	1.000000	263.889958	-19.506139	15.115500	6.449111	1.053837
1.000000	43194.775610	215.497083	-18.797306	710305.250000	1.000000	263.977958	-19.514556	15.121875	6.451722	1.055314
1.000000	43194.782555	206.574917	-54.508694	723807.937500	1.000000	264.065917	-19.522944	15.128208	6.454361	1.056792
1.000000	43194.831166	228.045583	49.081472	710932.937500	1.000000	264.681792	-19.580306	15.172667	6.472722	1.067134
1.000000	43194.838110	220.349625	13.198639	705425.625000	1.000000	264.769792	-19.588333	15.179000	6.475333	1.068612
1.000000	43194.845055	214.896750	-22.807611	711604.375000	1.000000	264.857792	-19.596306	15.185375	6.477972	1.070089
1.000000	43194.851999	204.725667	-58.422361	725186.312500	1.000000	264.945750	-19.604250	15.191708	6.480583	1.071567
1.000000	43194.900610	226.849125	45.106472	710037.875000	1.000000	265.561708	-19.658583	15.236167	6.498944	1.081909
1.000000	43194.907555	219.810208	9.179278	705439.750000	1.000000	265.649667	-19.666194	15.242542	6.501556	1.083387
1.000000	43194.914499	214.255917	-26.814361	713010.437500	1.000000	265.737667	-19.673722	15.248875	6.504194	1.084864
1.000000	43194.921444	202.398875	-62.299944	726446.062500	1.000000	265.825667	-19.681222	15.255208	6.506806	1.086342
1.000000	43194.970055	225.817875	41.119611	709162.062500	1.000000	266.441625	-19.732528	15.299708	6.525167	1.096685
1.000000	43194.976999	219.284542	5.159472	705626.500000	1.000000	266.529625	-19.739694	15.306042	6.527778	1.098162
1.000000	43194.983944	213.563125	-30.816778	714501.750000	1.000000	266.617625	-19.746806	15.312375	6.530417	1.099640
1.000000	43194.990888	199.368167	-66.123861	727564.875000	1.000000	266.705625	-19.753861	15.318750	6.533028	1.101117
1.000000	43195.039499	224.913000	37.123861	708329.125000	1.000000	267.321625	-19.802139	15.363208	6.551361	1.111460
1.000000	43195.046444	218.766375	1.139639	705989.562500	1.000000	267.409625	-19.808861	15.369542	6.554000	1.112937
1.000000	43195.053388	212.804167	-34.813778	716054.625000	1.000000	267.497625	-19.815528	15.375917	6.556611	1.114415
1.000000	43195.060333	195.250458	-69.863611	728522.937500	1.000000	267.585625	-19.822167	15.382250	6.559222	1.115892
1.000000	43195.108944	224.105958	33.121278	707561.875000	1.000000	268.201625	-19.867361	15.426708	6.577556	1.126235
1.000000	43195.115888	218.249958	-2.879750	706529.125000	1.000000	268.289625	-19.873639	15.433083	6.580194	1.127712
1.000000	43195.122833	211.960917	-38.804083	717644.000000	1.000000	268.377625	-19.879889	15.439417	6.582806	1.129190
1.000000	43195.178388	223.375500	29.113528	706882.312500	1.000000	269.081625	-19.928250	15.490250	6.603750	1.141010
1.000000	43195.185333	217.729417	-6.898250	707241.750000	1.000000	269.169625	-19.934083	15.496625	6.606389	1.142487
1.000000	43195.192277	211.009542	-42.785944	719243.625000	1.000000	269.257625	-19.939889	15.502958	6.609000	1.143965
1.000000	43195.247833	222.705167	25.101778	706310.750000	1.000000	269.961625	-19.984750	15.553792	6.629944	1.155785
1.000000	43195.254777	217.198875	-10.915472	708120.562500	1.000000	270.049625	-19.990139	15.560125	6.632556	1.157262
1.000000	43195.261722	209.918042	-46.757028	720826.750000	1.000000	270.137625	-19.995528	15.566500	6.635167	1.158740
1.000000	43195.317277	222.081875	21.087056	705865.500000	1.000000	270.841583	-20.036861	15.617333	6.656111	1.170560
1.000000	43195.324222	216.651958	-14.930889	709155.187500	1.000000	270.929583	-20.041833	15.623667	6.658722	1.172037
1.000000	43195.331166	208.642208	-50.714083	722366.375000	1.000000	271.017583	-20.046778	15.630042	6.661333	1.173515
1.000000	43195.386722	221.495083	17.070111	705562.687500	1.000000	271.721500	-20.084611	15.680875	6.682278	1.185335
1.000000	43195.393666	216.081667	-18.944000	710331.937500	1.000000	271.809500	-20.089167	15.687208	6.684889	1.186813
1.000000	43195.400610	207.118833	-54.652417	723836.125000	1.000000	271.897458	-20.093639	15.693583	6.687500	1.188290
1.000000	43195.449222	228.605542	48.936250	710907.187500	1.000000	272.513375	-20.123833	15.738042	6.705806	1.198633
1.000000	43195.456166	220.936042	13.051667	705415.437500	1.000000	272.601333	-20.127972	15.744417	6.708417	1.200110
1.000000	43195.463110	215.479958	-22.954250	711634.312500	1.000000	272.689333	-20.132083	15.750750	6.711028	1.201588
1.000000	43195.470055	205.254750	-58.565028	725210.562500	1.000000	272.777292	-20.136139	15.757125	6.713667	1.203065
1.000000	43195.518666	227.415833	44.960722	710010.687500	1.000000	273.393125	-20.163278	15.801625	6.731944	1.213408
1.000000	43195.525610	220.397167	9.032250	705434.125000	1.000000	273.481083	-20.166972	15.807958	6.734583	1.214885
1.000000	43195.532555	214.837333	-26.960944	713042.937500	1.000000	273.569042	-20.170611	15.814333	6.737194	1.216363
1.000000	43195.539499	202.906583	-62.441028	726465.625000	1.000000	273.657000	-20.174222	15.820667	6.739806	1.217840
1.000000	43195.588110	226.389708	40.973500	709134.375000	1.000000	274.272750	-20.198306	15.865167	6.758083	1.228183
1.000000	43195.595055	219.871792	5.012361	705625.625000	1.000000	274.360708	-20.201556	15.871500	6.760694	1.229660
1.000000	43195.601999	214.142333	-30.963222	714536.062500	1.000000	274.448667	-20.204778	15.877875	6.763306	1.231138
1.000000	43195.608944	199.843750	-66.262528	727579.187500	1.000000	274.536625	-20.207944	15.884208	6.765944	1.232615
1.000000	43195.657555	225.488750	36.977417	708301.625000	1.000000	275.152292	-20.228944	15.928708	6.784222	1.242958
1.000000	43195.664499	219.353750	0.992500	705993.625000	1.000000	275.240208	-20.231750	15.935083	6.786833	1.244435
1.000000	43195.671444	213.380542	-34.960056	716090.000000	1.000000	275.328167	-20.234528	15.941417	6.789444	1.245913
1.000000	43195.678388	195.675250	-69.998361	728531.375000	1.000000	275.416083	-20.237278	15.947792	6.792056	1.247390
1.000000	43195.726999	224.684792	32.974611	707535.500000	1.000000	276.031625	-20.255194	15.992292	6.810333	1.257733
1.000000	43195.733944	218.837167	-3.026917	706538.125000	1.000000	276.119583	-20.257583	15.998625	6.812944	1.259210
1.000000	43195.740888	212.533667	-38.950139	717679.687500	1.000000	276.207500	-20.259917	16.005000	6.815556	1.260688
1.000000	43195.796444	223.956708	28.966639	706857.750000	1.000000	276.910833	-20.277056	16.055833	6.836444	1.272508
1.000000	43195.803388	218.316333	-7.045444	707255.562500	1.000000	276.998750	-20.279000	16.062208	6.839056	1.273986
1.000000	43195.810333	211.577667	-42.931722	719278.687500	1.000000	277.086667	-20.280889	16.068583	6.841667	1.275463
1.000000	43195.865888	223.288208	24.954722	706288.750000	1.000000	277.789833	-20.294528	16.119417	6.862556	1.287283
1.000000	43195.872833	217.785250	-11.062639	708139.000000	1.000000	277.877750	-20.296028	16.125792	6.865167	1.288761
1.000000	43195.879777	210.480167	-46.902417	720860.312500	1.000000	277.965625	-20.297472	16.132125	6.867750	1.290238
1.000000	43195.935333	222.666333	20.939861	705846.687500	1.000000	278.668667	-20.307611	16.183000	6.888639	1.302058
1.000000	43195.942277	217.237542	-15.078056	709177.812500	1.000000	278.756500	-20.308667	16.189375	6.891250	1.303536
1.000000	43195.949222	209.196333	-50.858917	722397.625000	1.000000	278.844375	-20.309694	16.195708	6.893861	1.305013
1.000000	43196.004777	222.080667	16.922833	705547.625000	1.000000	279.547208	-20.316306	16.246583	6.914722	1.316833
1.000000	43196.011722	216.666167	-19.091139	710358.437500	1.000000	279.635083	-20.316917	16.252958	6.917333	1.318311
1.000000	43196.018666	207.662167	-54.796500	723864.312500	1.000000	279.722917	-20.317500	16.259292	6.919917	1.319788
1.000000	43196.067277	229.165667	48.790611	710880.500000	1.000000	280.337708	-20.320361	16.303833	6.938167	1.330131
1.000000	43196.074222	221.522417	12.904278	705404.625000	1.000000	280.425542	-20.320611	16.310167	6.940778	1.331608
1.000000	43196.081166	216.063042	-23.101306	711664.000000	1.000000	280.513375	-20.320778	16.316542	6.943389	1.333086
1.000000	43196.088110	205.783000	-58.708028	725234.812500	1.000000	280.601167	-20.320944	16.322875	6.946000	1.334563
1.000000	43196.136722	227.982667	44.814583	709982.625000	1.000000	281.215792	-20.320722	16.367417	6.964250	1.344906
1.000000	43196.143666	220.984083	8.884778	705427.875000	1.000000	281.303583	-20.320528	16.373750	6.966861	1.346383
1.000000	43196.150610	215.418625	-27.107917	713075.187500	1.000000	281.391375	-20.320278	16.380125	6.969444	1.347861
1.000000	43196.157555	203.413083	-62.582417	726485.250000	1.000000	281.479167	-20.320000	16.386500	6.972056	1.349338
1.000000	43196.206166	226.961625	40.826944	709105.687500	1.000000	282.093583	-20.316722	16.431000	6.990306	1.359681
1.000000	43196.213110	220.459000	4.864861	705624.250000	1.000000	282.181375	-20.316083	16.437375	6.992889	1.361159
1.000000	43196.220055	214.721333	-31.110083	714570.187500	1.000000	282.269125	-20.315389	16.443708	6.995500	1.362636
1.000000	43196.226999	200.317500	-66.401472	727593.500000	1.000000	282.356875	-20.314667	16.450083	6.998111	1.364114
1.000000	43196.275610	226.064542	36.830556	708273.250000	1.000000	282.971083	-20.308333	16.494583	7.016333	1.374456
1.000000	43196.282555	219.941042	0.844944	705997.187500	1.000000	283.058833	-20.307250	16.500958	7.018944	1.375934
1.000000	43196.289499	213.956708	-35.106750	716125.312500	1.000000	283.146542	-20.306139	16.507333	7.021556	1.377411
1.000000	43196.345055	225.263625	32.827500	707508.250000	1.000000	283.848250	-20.295583	16.558208	7.042361	1.389231
1.000000	43196.351999	219.424375	-3.174500	706546.687500	1.000000	283.935958	-20.294056	16.564583	7.044972	1.390709
1.000000	43196.358944	213.106167	-39.096611	717715.187500	1.000000	284.023667	-20.292500	16.570917	7.047583	1.392186
1.000000	43196.414499	224.537875	28.819333	706832.375000	1.000000	284.725083	-20.278472	16.621833	7.068389	1.404006
1.000000	43196.421444	218.903167	-7.193028	707269.000000	1.000000	284.812750	-20.276500	16.628167	7.071000	1.405484
1.000000	43196.428388	212.145458	-43.077889	719313.687500	1.000000	284.900417	-20.274528	16.634542	7.073611	1.406961
1.000000	43196.483944	223.871208	24.807278	706265.937500	1.000000	285.601542	-20.257000	16.685458	7.094417	1.418781
1.000000	43196.490888	218.371500	-11.210222	708157.062500	1.000000	285.689167	-20.254611	16.691792	7.097028	1.420259
1.000000	43196.497833	211.041875	-47.048167	720893.875000	1.000000	285.776792	-20.252167	16.698167	7.099611	1.421736
1.000000	43196.553388	223.250792	20.792278	705827.187500	1.000000	286.477625	-20.231167	16.749042	7.120417	1.433556
1.000000	43196.560333	217.823000	-15.225611	709200.187500	1.000000	286.565250	-20.228333	16.755417	7.123028	1.435034
1.000000	43196.567277	209.749958	-51.004139	722428.875000	1.000000	286.652833	-20.225472	16.761792	7.125611	1.436511
1.000000	43196.622833	222.666167	16.775139	705531.875000	1.000000	287.353333	-20.201000	16.812667	7.146417	1.448332
1.000000	43196.629777	217.250542	-19.238667	710384.625000	1.000000	287.440875	-20.197750	16.819042	7.149028	1.449809
1.000000	43196.636722	208.204833	-54.940944	723892.437500	1.000000	287.528417	-20.194444	16.825417	7.151611	1.451287
1.000000	43196.685333	229.725917	48.644583	710852.812500	1.000000	288.141083	-20.170167	16.869958	7.169806	1.461629
1.000000	43196.692277	222.108708	12.756472	705393.187500	1.000000	288.228625	-20.166500	16.876333	7.172389	1.463107
1.000000	43196.699222	216.646000	-23.248806	711693.500000	1.000000	288.316125	-20.162833	16.882667	7.175000	1.464584
1.000000	43196.706166	206.310333	-58.851389	725259.062500	1.000000	288.403625	-20.159083	16.889042	7.177611	1.466062
1.000000	43196.754777	228.549583	44.668028	709953.562500	1.000000	289.016000	-20.131778	16.933583	7.195778	1.476404
1.000000	43196.761722	221.570917	8.736917	705421.062500	1.000000	289.103458	-20.127694	16.939958	7.198389	1.477882
1.000000	43196.768666	215.999792	-27.255306	713107.312500	1.000000	289.190917	-20.123583	16.946333	7.200972	1.479359
1.000000	43196.824222	227.533542	40.680000	709076.125000	1.000000	289.890417	-20.089056	16.997250	7.221750	1.491179
1.000000	43196.831166	221.046125	4.716917	705622.312500	1.000000	289.977833	-20.084556	17.003583	7.224333	1.492657
1.000000	43196.838110	215.300208	-31.257333	714604.250000	1.000000	290.065250	-20.080000	17.009958	7.226944	1.494134
1.000000	43196.893666	226.640375	36.683306	708244.000000	1.000000	290.764417	-20.042056	17.060875	7.247722	1.505954
1.000000	43196.900610	220.528250	0.696972	706000.312500	1.000000	290.851792	-20.037111	17.067250	7.250306	1.507432
1.000000	43196.907555	214.532625	-35.253861	716160.437500	1.000000	290.939125	-20.032139	17.073625	7.252889	1.508909
1.000000	43196.963110	225.842458	32.680000	707480.125000	1.000000	291.637917	-19.990750	17.124542	7.273667	1.520729
1.000000	43196.970055	220.011458	-3.322500	706554.812500	1.000000	291.725208	-19.985389	17.130875	7.276250	1.522207
1.000000	43196.976999	213.678417	-39.243500	717750.687500	1.000000	291.812542	-19.979972	17.137250	7.278833	1.523684
1.000000	43197.032555	225.119083	28.671639	706806.187500	1.000000	292.510917	-19.935167	17.188167	7.299583	1.535504
1.000000	43197.039499	219.489917	-7.341056	707282.062500	1.000000	292.598167	-19.929389	17.194542	7.302194	1.536982
1.000000	43197.046444	212.713000	-43.224472	719348.625000	1.000000	292.685458	-19.923556	17.200917	7.304778	1.538460
1.000000	43197.101999	224.454208	24.659417	706242.375000	1.000000	293.383375	-19.875333	17.251833	7.325528	1.550280
1.000000	43197.108944	218.957708	-11.358250	708174.812500	1.000000	293.470625	-19.869111	17.258208	7.328111	1.551757
1.000000	43197.115888	211.603208	-47.194361	720927.375000	1.000000	293.557833	-19.862833	17.264583	7.330722	1.553235
1.000000	43197.171444	223.835208	20.644278	705806.937500	1.000000	294.255375	-19.811222	17.315500	7.351444	1.565055
1.000000	43197.178388	218.408375	-15.373611	709222.250000	1.000000	294.342542	-19.804556	17.321875	7.354028	1.566532
1.000000	43197.185333	210.303083	-51.149750	722460.187500	1.000000	294.429708	-19.797889	17.328250	7.356639	1.568010
1.000000	43197.240888	223.251667	16.627028	705515.500000	1.000000	295.126792	-19.742861	17.379167	7.377361	1.579830
1.000000	43197.247833	217.834792	-19.386611	710410.562500	1.000000	295.213917	-19.735778	17.385542	7.379944	1.581307
1.000000	43197.303388	230.286292	48.498111	710824.125000	1.000000	295.910625	-19.677722	17.436500	7.400667	1.593127
1.000000	43197.310333	222.695000	12.608278	705381.125000	1.000000	295.997667	-19.670278	17.442875	7.403250	1.594605
1.000000	43197.317277	217.228833	-23.396667	711722.750000	1.000000	296.084750	-19.662778	17.449250	7.405833	1.596082
1.000000	43197.372833	229.116542	44.521056	709923.562500	1.000000	296.781000	-19.601333	17.500167	7.426556	1.607902
1.000000	43197.379777	222.157750	8.588639	705413.687500	1.000000	296.868000	-19.593472	17.506542	7.429139	1.609380
1.000000	43197.386722	216.580792	-27.403083	713139.250000	1.000000	296.955000	-19.585556	17.512917	7.431722	1.610857
1.000000	43197.442277	228.105542	40.532639	709045.625000	1.000000	297.650792	-19.520750	17.563875	7.452444	1.622677
1.000000	43197.449222	221.633250	4.568583	705619.937500	1.000000	297.737750	-19.512472	17.570250	7.455028	1.624155
1.000000	43197.456166	215.878875	-31.405000	714638.125000	1.000000	297.824708	-19.504139	17.576583	7.457611	1.625632
1.000000	43197.511722	227.216208	36.535639	708213.875000	1.000000	298.520042	-19.435972	17.627542	7.478306	1.637453
1.000000	43197.518666	221.115458	0.548611	706003.000000	1.000000	298.606917	-19.427278	17.633917	7.480889	1.638930
1.000000	43197.525610	215.108375	-35.401361	716195.562500	1.000000	298.693792	-19.418528	17.640292	7.483472	1.640408
1.000000	43197.581166	226.421292	32.532083	707451.125000	1.000000	299.388667	-19.347028	17.691250	7.504167	1.652228
1.000000	43197.588110	220.598500	-3.470889	706562.562500	1.000000	299.475500	-19.337917	17.697625	7.506750	1.653705
1.000000	43197.650610	225.700250	28.523528	706779.187500	1.000000	300.256708	-19.253944	17.754958	7.530028	1.667003
1.000000	43197.657555	220.076625	-7.489472	707294.812500	1.000000	300.343458	-19.244389	17.761333	7.532611	1.668480
1.000000	43197.720055	225.037208	24.511139	706218.062500	1.000000	301.124083	-19.156694	17.818667	7.555861	1.681778
1.000000	43197.726999	219.543792	-11.506667	708192.250000	1.000000	301.210792	-19.146750	17.825042	7.558444	1.683255
1.000000	43197.789499	224.419625	20.495861	705785.937500	1.000000	301.990875	-19.055333	17.882375	7.581694	1.696553
1.000000	43197.796444	218.993625	-15.522000	709244.125000	1.000000	302.077542	-19.044972	17.888750	7.584278	1.698030
1.000000	43197.858944	223.837125	16.478500	705498.437500	1.000000	302.857042	-18.949889	17.946083	7.607500	1.711328
1.000000	43197.865888	218.418958	-19.534972	710436.375000	1.000000	302.943625	-18.939111	17.952458	7.610083	1.712805
1.000000	43197.921444	230.846833	48.351222	710794.500000	1.000000	303.636083	-18.851500	18.003458	7.630722	1.724626
1.000000	43197.928388	223.281250	12.459667	705368.437500	1.000000	303.722583	-18.840361	18.009833	7.633306	1.726103
1.000000	43197.990888	229.683625	44.373667	709892.562500	1.000000	304.501000	-18.738306	18.067167	7.656528	1.739401
1.000000	43197.997833	222.744500	8.439944	705405.750000	1.000000	304.587458	-18.726750	18.073542	7.659111	1.740878
1.000000	43198.060333	228.677625	40.384861	709014.187500	1.000000	305.365333	-18.621056	18.130917	7.682333	1.754176
1.000000	43198.067277	222.220292	4.419861	705617.000000	1.000000	305.451708	-18.609111	18.137292	7.684917	1.755653
1.000000	43198.129777	227.792083	36.387556	708182.812500	1.000000	306.229000	-18.499778	18.194667	7.708111	1.768951
1.000000	43198.136722	221.702542	0.399806	706005.187500	1.000000	306.315333	-18.487444	18.201042	7.710694	1.770428
1.000000	43198.199222	227.000125	32.383750	707421.312500	1.000000	307.092000	-18.374528	18.258417	7.733889	1.783726
1.000000	43198.268666	226.281417	28.375000	706751.375000	1.000000	307.954333	-18.245278	18.322167	7.759639	1.798501
1.000000	43198.338110	225.620208	24.362444	706193.000000	1.000000	308.816042	-18.112056	18.385917	7.785389	1.813276
1.000000	43198.407555	225.004000	20.347028	705764.250000	1.000000	309.677083	-17.974917	18.449667	7.811111	1.828051
1.000000	43198.539499	231.407458	48.203944	710763.875000	1.000000	311.311208	-17.703556	18.570833	7.860000	1.856124
1.000000	43198.608944	230.250792	44.225861	709860.687500	1.000000	312.170375	-17.555139	18.634625	7.885694	1.870899
1.000000	43198.678388	229.249708	40.236667	708981.812500	1.000000	313.028833	-17.402861	18.698417	7.911417	1.885674
1.000000	43212.157555	219.159042	-62.547000	725959.562500	1.000000	135.762917	17.010417	31.210375	12.659417	1.523011
1.000000	43212.226999	216.063042	-66.367250	727095.375000	1.000000	136.761083	16.813389	31.275625	12.682417	1.508174
1.000000	43212.567277	225.496167	-50.975167	721850.250000	1.000000	141.612958	15.781694	31.595417	12.794972	1.435478
1.000000	43212.636722	223.948833	-54.913389	723333.375000	1.000000	142.595042	15.558194	31.660708	12.817889	1.420641
1.000000	43212.706166	222.051958	-58.825139	724722.750000	1.000000	143.574333	15.330500	31.726000	12.840778	1.405805
1.000000	43212.775610	219.657292	-62.699083	725994.250000	1.000000	144.550875	15.098667	31.791333	12.863667	1.390969
1.000000	43212.845055	216.525625	-66.516611	727125.687500	1.000000	145.524625	14.862806	31.856625	12.886528	1.376133
1.000000	43212.907555	230.284000	-35.229389	715543.687500	1.000000	146.398625	14.647167	31.915417	12.907111	1.362781
1.000000	43212.914499	212.249917	-70.245083	728097.312500	1.000000	146.495625	14.623028	31.921958	12.909389	1.361297
1.000000	43212.976999	229.427875	-39.220611	717141.375000	1.000000	147.367125	14.403917	31.980750	12.929944	1.347945
1.000000	43213.046444	228.460375	-43.203167	718750.250000	1.000000	148.332833	14.156861	32.046125	12.952750	1.333108
1.000000	43213.115888	227.348292	-47.174556	720343.375000	1.000000	149.295792	13.906111	32.111458	12.975556	1.318272
1.000000	43213.178388	234.166167	-15.351583	708620.125000	1.000000	150.160125	13.677361	32.170292	12.996056	1.304920
1.000000	43213.185333	226.045583	-51.131389	721893.875000	1.000000	150.256000	13.651778	32.176833	12.998333	1.303436
1.000000	43213.247833	233.591000	-19.366278	709799.812500	1.000000	151.117875	13.419861	32.235667	13.018806	1.290084
1.000000	43213.254777	224.486333	-55.068750	723375.125000	1.000000	151.213500	13.393917	32.242208	13.021083	1.288600
1.000000	43213.317277	232.983417	-23.378028	711106.937500	1.000000	152.072875	13.158917	32.301042	13.041556	1.275248
1.000000	43213.324222	222.572833	-58.979278	724761.750000	1.000000	152.168250	13.132639	32.307583	13.043833	1.273764
1.000000	43213.379777	237.923292	8.609667	704920.562500	1.000000	152.930083	12.921222	32.359875	13.062028	1.261895
1.000000	43213.386722	232.333667	-27.386083	712521.937500	1.000000	153.025208	12.894639	32.366417	13.064306	1.260412
1.000000	43213.393666	220.154167	-62.851472	726029.625000	1.000000	153.120292	12.868028	32.372958	13.066556	1.258928
1.000000	43213.449222	237.397167	4.588028	705100.625000	1.000000	153.880000	12.654000	32.425292	13.084750	1.247059
1.000000	43213.456166	231.629958	-31.389667	714022.875000	1.000000	153.974833	12.627083	32.431833	13.087000	1.245575
1.000000	43213.463110	216.986125	-66.666250	727156.687500	1.000000	154.069625	12.600167	32.438375	13.089278	1.244092
1.000000	43213.518666	236.877792	0.566444	705460.437500	1.000000	154.827208	12.383611	32.490708	13.107444	1.232223
1.000000	43213.525610	230.857500	-35.387611	715585.875000	1.000000	154.921792	12.356389	32.497250	13.109694	1.230739
1.000000	43213.532555	212.652625	-70.390194	728123.250000	1.000000	155.016333	12.329139	32.503792	13.111972	1.229256
1.000000	43213.588110	236.359333	-3.454667	705999.875000	1.000000	155.771792	12.110111	32.556125	13.130111	1.217387
1.000000	43213.595055	229.997417	-39.378611	717185.562500	1.000000	155.866083	12.082611	32.562667	13.132389	1.215903
1.000000	43213.650610	241.473417	28.541083	706434.687500	1.000000	156.619625	11.861417	32.615000	13.150500	1.204034
1.000000	43213.657555	235.835875	-7.474889	706715.125000	1.000000	156.713708	11.833639	32.621542	13.152778	1.202551
1.000000	43213.664499	229.024792	-43.360806	718795.437500	1.000000	156.807750	11.805833	32.628083	13.155028	1.201067
1.000000	43213.720055	240.808250	24.527361	705837.000000	1.000000	157.559250	11.582333	32.680417	13.173167	1.189198
1.000000	43213.726999	235.301542	-11.493750	707599.000000	1.000000	157.653083	11.554250	32.686958	13.175417	1.187715
1.000000	43213.733944	227.906042	-47.331750	720388.625000	1.000000	157.746875	11.526167	32.693500	13.177694	1.186231
1.000000	43213.789499	240.188708	20.510667	705370.312500	1.000000	158.496292	11.300389	32.745875	13.195778	1.174362
1.000000	43213.796444	234.749750	-15.510778	708640.687500	1.000000	158.589833	11.272056	32.752417	13.198056	1.172879
1.000000	43213.803388	226.594458	-51.287972	721938.187500	1.000000	158.683375	11.243667	32.758958	13.200306	1.171395
1.000000	43213.858944	239.604417	16.491833	705050.437500	1.000000	159.430750	11.015722	32.811333	13.218389	1.159526
1.000000	43213.865888	234.173458	-19.525417	709826.250000	1.000000	159.524083	10.987111	32.817875	13.220667	1.158042
1.000000	43213.872833	225.023125	-55.224472	723417.625000	1.000000	159.617375	10.958472	32.824417	13.222917	1.156559
1.000000	43213.928388	239.046792	12.471500	704890.562500	1.000000	160.362750	10.728417	32.876792	13.241000	1.144690
1.000000	43213.935333	233.564333	-23.537083	711138.625000	1.000000	160.455792	10.699556	32.883333	13.243250	1.143206
1.000000	43213.942277	223.092750	-59.133778	724801.437500	1.000000	160.548833	10.670639	32.889875	13.245500	1.141723
1.000000	43213.997833	238.508417	8.450250	704900.687500	1.000000	161.292208	10.438556	32.942250	13.263556	1.129854
1.000000	43214.004777	232.912625	-27.545056	712558.187500	1.000000	161.385042	10.409417	32.948792	13.265833	1.128370
1.000000	43214.011722	220.649542	-63.004139	726065.750000	1.000000	161.477833	10.380278	32.955333	13.268083	1.126887
1.000000	43214.060333	244.455917	40.395528	708767.062500	1.000000	162.126667	10.175556	33.001167	13.283861	1.116501
1.000000	43214.067277	237.982625	4.428556	705087.562500	1.000000	162.219250	10.146222	33.007708	13.286139	1.115018
1.000000	43214.074222	232.206417	-31.548500	714062.937500	1.000000	162.311833	10.116861	33.014292	13.288389	1.113534
1.000000	43214.081166	217.444458	-66.816111	727188.437500	1.000000	162.404375	10.087472	33.020833	13.290639	1.112051
1.000000	43214.129777	243.567667	36.397056	707895.437500	1.000000	163.051542	9.881083	33.066667	13.306417	1.101665
1.000000	43214.136722	237.463333	0.406917	705454.375000	1.000000	163.143875	9.851500	33.073208	13.308667	1.100182
1.000000	43214.143666	231.430792	-35.546278	715628.812500	1.000000	163.236208	9.821889	33.079750	13.310917	1.098698
1.000000	43214.150610	213.051833	-70.535417	728149.937500	1.000000	163.328542	9.792278	33.086333	13.313167	1.097214
1.000000	43214.199222	242.773292	32.392028	707095.062500	1.000000	163.974000	9.584306	33.132167	13.328944	1.086829
1.000000	43214.206166	236.944708	-3.614250	706000.875000	1.000000	164.066125	9.554500	33.138708	13.331194	1.085346
1.000000	43214.213110	230.566667	-39.537000	717230.437500	1.000000	164.158208	9.524667	33.145250	13.333444	1.083862
1.000000	43214.220055	206.704250	-74.097083	728933.312500	1.000000	164.250292	9.494833	33.151833	13.335694	1.082378
1.000000	43214.268666	242.052417	28.381944	706387.875000	1.000000	164.894167	9.285306	33.197667	13.351444	1.071993
1.000000	43214.275610	236.420917	-7.634500	706723.125000	1.000000	164.986042	9.255278	33.204208	13.353694	1.070509
1.000000	43214.282555	229.588875	-43.518861	718841.375000	1.000000	165.077917	9.225250	33.210792	13.355944	1.069026
1.000000	43214.338110	241.389250	24.368028	705794.250000	1.000000	165.812000	8.984194	33.263208	13.373944	1.057157
1.000000	43214.345055	235.885917	-11.653361	707613.750000	1.000000	165.903625	8.953972	33.269750	13.376194	1.055673
1.000000	43214.351999	228.463333	-47.489333	720434.687500	1.000000	165.995292	8.923722	33.276292	13.378417	1.054190
1.000000	43214.407555	240.771208	20.351194	705332.375000	1.000000	166.727542	8.681028	33.328708	13.396417	1.042321
1.000000	43214.414499	235.333292	-15.670361	708661.812500	1.000000	166.819000	8.650611	33.335250	13.398639	1.040837
1.000000	43214.421444	227.142750	-51.444944	721983.312500	1.000000	166.910375	8.620167	33.341833	13.400889	1.039354
1.000000	43214.476999	240.188042	16.332222	705018.062500	1.000000	167.640875	8.375944	33.394250	13.418861	1.027485
1.000000	43214.483944	234.755792	-19.684972	709853.250000	1.000000	167.732083	8.345333	33.400792	13.421111	1.026001
1.000000	43214.490888	225.559167	-55.380583	723460.875000	1.000000	167.823292	8.314694	33.407375	13.423361	1.024517
1.000000	43214.546444	239.631292	12.311778	704864.250000	1.000000	168.552042	8.069000	33.459792	13.441306	1.012649
1.000000	43214.553388	234.145083	-23.696556	711171.000000	1.000000	168.643042	8.038222	33.466333	13.443528	1.011165
1.000000	43214.560333	223.611625	-59.288639	724841.875000	1.000000	168.734000	8.007389	33.472917	13.445778	1.009681
1.000000	43214.615888	239.093458	8.290417	704880.937500	1.000000	169.461042	7.760278	33.525333	13.463722	0.997813
1.000000	43214.622833	233.491375	-27.704444	712595.125000	1.000000	169.551833	7.729333	33.531917	13.465944	0.996329
1.000000	43214.629777	221.143500	-63.157111	726102.562500	1.000000	169.642625	7.698333	33.538458	13.468194	0.994845
1.000000	43214.678388	245.025125	40.236861	708713.125000	1.000000	170.277375	7.481000	33.584375	13.483861	0.984460
1.000000	43214.685333	238.568000	4.268639	705074.687500	1.000000	170.368000	7.449889	33.590917	13.486111	0.982976
1.000000	43214.692277	232.782667	-31.707722	714103.687500	1.000000	170.458542	7.418778	33.597458	13.488361	0.981493
1.000000	43214.699222	217.900583	-66.966194	727220.812500	1.000000	170.549125	7.387611	33.604042	13.490583	0.980009
1.000000	43214.747833	244.140958	36.238028	707842.750000	1.000000	171.182458	7.169167	33.649917	13.506250	0.969624
1.000000	43214.754777	238.048792	0.246944	705448.625000	1.000000	171.272833	7.137917	33.656500	13.508500	0.968140
1.000000	43214.761722	232.003875	-35.705306	715672.500000	1.000000	171.363208	7.106611	33.663042	13.510722	0.966657
1.000000	43214.768666	213.447500	-70.680778	728177.250000	1.000000	171.453583	7.075333	33.669625	13.512972	0.965173
1.000000	43214.817277	243.349792	32.232722	707044.687500	1.000000	172.085500	6.855833	33.715500	13.528611	0.954788
1.000000	43214.824222	237.530042	-3.774250	706002.250000	1.000000	172.175708	6.824417	33.722083	13.530861	0.953304
1.000000	43214.831166	231.135667	-39.695806	717276.187500	1.000000	172.265875	6.792972	33.728625	13.533083	0.951821
1.000000	43214.838110	206.997875	-74.234028	728955.000000	1.000000	172.356042	6.761528	33.735208	13.535333	0.950337
1.000000	43214.886722	242.631417	28.222417	706340.812500	1.000000	172.986583	6.541056	33.781125	13.550972	0.939952
1.000000	43214.893666	237.005833	-7.794528	706731.562500	1.000000	173.076583	6.509500	33.787667	13.553194	0.938468
1.000000	43214.900610	230.152583	-43.677306	718888.125000	1.000000	173.166583	6.477944	33.794208	13.555444	0.936984
1.000000	43214.956166	241.970208	24.208278	705751.250000	1.000000	173.885750	6.224944	33.846708	13.573306	0.925116
1.000000	43214.963110	236.470250	-11.813389	707629.000000	1.000000	173.975583	6.193250	33.853250	13.575528	0.923632
1.000000	43214.970055	229.020208	-47.647306	720481.437500	1.000000	174.065375	6.161556	33.859833	13.577750	0.922148
1.000000	43215.025610	241.353667	20.191278	705294.312500	1.000000	174.783042	5.907556	33.912333	13.595611	0.910279
1.000000	43215.032555	235.916708	-15.830361	708683.562500	1.000000	174.872667	5.875750	33.918875	13.597833	0.908796
1.000000	43215.039499	227.690500	-51.602278	722029.187500	1.000000	174.962292	5.843944	33.925458	13.600083	0.907312
1.000000	43215.095055	240.771667	16.172167	704985.625000	1.000000	175.678542	5.589028	33.977958	13.617917	0.895443
1.000000	43215.101999	235.337958	-19.844917	709881.000000	1.000000	175.767958	5.557111	33.984500	13.620139	0.893960
1.000000	43215.108944	226.094500	-55.537028	723504.875000	1.000000	175.857417	5.525194	33.991083	13.622361	0.892476
1.000000	43215.164499	240.215750	12.151611	704838.062500	1.000000	176.572208	5.269389	34.043583	13.640167	0.880607
1.000000	43215.171444	234.725708	-23.856444	711204.000000	1.000000	176.661500	5.237389	34.050125	13.642417	0.879124
1.000000	43215.178388	224.129458	-59.443806	724883.125000	1.000000	176.750750	5.205361	34.056708	13.644639	0.877640
1.000000	43215.233944	239.678458	8.130167	704861.375000	1.000000	177.464167	4.948778	34.109208	13.662444	0.865771
1.000000	43215.240888	234.070000	-27.864222	712632.812500	1.000000	177.553292	4.916667	34.115792	13.664667	0.864288
1.000000	43215.247833	221.635958	-63.310417	726140.062500	1.000000	177.642375	4.884528	34.122333	13.666889	0.862804
1.000000	43215.296444	245.594375	40.077750	708658.562500	1.000000	178.265500	4.659417	34.168292	13.682444	0.852419
1.000000	43215.303388	239.153333	4.108333	705062.125000	1.000000	178.354458	4.627250	34.174875	13.684667	0.850935
1.000000	43215.310333	233.358750	-31.867361	714145.187500	1.000000	178.443375	4.595028	34.181417	13.686889	0.849451
1.000000	43215.317277	218.354417	-67.116528	727253.937500	1.000000	178.532333	4.562833	34.188000	13.689111	0.847968
1.000000	43215.365888	244.714333	36.078583	707789.625000	1.000000	179.154292	4.337139	34.233958	13.704667	0.837583
1.000000	43215.372833	238.634208	0.086556	705443.250000	1.000000	179.243083	4.304861	34.240542	13.706889	0.836099
1.000000	43215.379777	232.576708	-35.864750	715717.000000	1.000000	179.331875	4.272583	34.247083	13.709111	0.834615
1.000000	43215.386722	213.839583	-70.826250	728205.250000	1.000000	179.420625	4.240306	34.253667	13.711333	0.833132
1.000000	43215.435333	243.926333	32.073000	706993.937500	1.000000	180.041542	4.014111	34.299625	13.726889	0.822746
1.000000	43215.442277	238.115292	-3.934667	706004.125000	1.000000	180.130167	3.981750	34.306208	13.729083	0.821263
1.000000	43215.449222	231.704375	-39.854972	717322.625000	1.000000	180.218792	3.949417	34.312750	13.731306	0.819779
1.000000	43215.456166	207.285333	-74.370861	728977.312500	1.000000	180.307375	3.917056	34.319333	13.733528	0.818296
1.000000	43215.504777	243.210417	28.062444	706293.375000	1.000000	180.927208	3.690389	34.365292	13.749056	0.807910
1.000000	43215.511722	237.590708	-7.954944	706740.562500	1.000000	181.015708	3.657972	34.371875	13.751278	0.806427
1.000000	43215.518666	230.716000	-43.836139	718935.687500	1.000000	181.104167	3.625583	34.378458	13.753500	0.804943
1.000000	43215.574222	242.551125	24.048111	705708.062500	1.000000	181.811417	3.366083	34.431000	13.771222	0.793074
1.000000	43215.581166	237.054458	-11.973806	707644.875000	1.000000	181.899750	3.333639	34.437583	13.773444	0.791591
1.000000	43215.588110	229.576625	-47.805667	720529.062500	1.000000	181.988083	3.301167	34.444125	13.775667	0.790107
1.000000	43215.643666	241.936125	20.030944	705256.125000	1.000000	182.694167	3.041278	34.496708	13.793389	0.778238
1.000000	43215.650610	236.500000	-15.990778	708705.937500	1.000000	182.782375	3.008778	34.503250	13.795583	0.776755
1.000000	43215.657555	228.237667	-51.759972	722075.812500	1.000000	182.870542	2.976278	34.509833	13.797806	0.775271
1.000000	43215.713110	241.355250	16.011722	704953.187500	1.000000	183.575542	2.716056	34.562417	13.815500	0.763402
1.000000	43215.720055	235.920042	-20.005306	709909.375000	1.000000	183.663583	2.683528	34.568958	13.817722	0.761918
1.000000	43215.726999	226.629042	-55.693833	723549.625000	1.000000	183.751625	2.650972	34.575542	13.819944	0.760435
1.000000	43215.782555	240.800167	11.991056	704811.937500	1.000000	184.455542	2.390500	34.628125	13.837611	0.748566
1.000000	43215.789499	235.306208	-24.016750	711237.812500	1.000000	184.543500	2.357917	34.634708	13.839833	0.747082
1.000000	43215.796444	224.646250	-59.599306	724925.062500	1.000000	184.631417	2.325361	34.641250	13.842056	0.745599
1.000000	43215.851999	240.263458	7.969500	704842.062500	1.000000	185.334292	2.064667	34.693833	13.859722	0.733730
1.000000	43215.858944	234.648458	-28.024417	712671.312500	1.000000	185.422125	2.032083	34.700417	13.861917	0.732246
1.000000	43215.865888	222.126875	-63.463972	726178.375000	1.000000	185.509917	1.999472	34.707000	13.864139	0.730763
1.000000	43215.914499	246.163708	39.918250	708603.500000	1.000000	186.124125	1.771278	34.753000	13.879583	0.720377
1.000000	43215.921444	239.738583	3.947583	705049.875000	1.000000	186.211792	1.738667	34.759583	13.881778	0.718894
1.000000	43215.928388	233.934625	-32.027417	714187.500000	1.000000	186.299500	1.706056	34.766167	13.884000	0.717410
1.000000	43215.935333	218.805958	-67.267111	727287.812500	1.000000	186.387167	1.673472	34.772750	13.886194	0.715927
1.000000	43215.983944	245.287708	35.918722	707736.000000	1.000000	187.000542	1.445194	34.818750	13.901639	0.705541
1.000000	43215.990888	239.219542	-0.074222	705438.250000	1.000000	187.088125	1.412583	34.825333	13.903861	0.704058
1.000000	43215.997833	233.149292	-36.024611	715762.250000	1.000000	187.175667	1.379972	34.831917	13.906056	0.702574
1.000000	43216.004777	214.227917	-70.971861	728233.937500	1.000000	187.263250	1.347361	34.838500	13.908250	0.701090
1.000000	43216.053388	244.502875	31.912833	706942.812500	1.000000	187.875833	1.119083	34.884500	13.923694	0.690705
1.000000	43216.060333	238.700458	-4.095500	706006.437500	1.000000	187.963292	1.086472	34.891083	13.925889	0.689222
1.000000	43216.067277	232.272792	-40.014556	717369.937500	1.000000	188.050750	1.053861	34.897667	13.928083	0.687738
1.000000	43216.074222	207.566458	-74.507583	729000.312500	1.000000	188.138208	1.021250	34.904250	13.930306	0.686254
1.000000	43216.122833	243.789458	27.902056	706245.687500	1.000000	188.750000	0.793000	34.950292	13.945694	0.675869
1.000000	43216.129777	238.175500	-8.115806	706750.062500	1.000000	188.837375	0.760417	34.956875	13.947917	0.674385
1.000000	43216.136722	231.279000	-43.995361	718984.062500	1.000000	188.924750	0.727806	34.963458	13.950111	0.672902
1.000000	43216.192277	243.132083	23.887528	705664.750000	1.000000	189.623167	0.467083	35.016042	13.967722	0.661033
1.000000	43216.199222	237.638583	-12.134667	707661.312500	1.000000	189.710417	0.434500	35.022625	13.969917	0.659549
1.000000	43216.206166	230.132625	-47.964417	720577.500000	1.000000	189.797667	0.401917	35.029208	13.972111	0.658066
1.000000	43216.261722	242.518542	19.870222	705217.937500	1.000000	190.495333	0.141361	35.081833	13.989694	0.646197
1.000000	43216.268666	237.083208	-16.151611	708729.000000	1.000000	190.582500	0.108806	35.088417	13.991889	0.644713
1.000000	43216.275610	228.784250	-51.918056	722123.312500	1.000000	190.669625	0.076250	35.095000	13.994083	0.643230
1.000000	43216.331166	241.938833	15.850833	704920.812500	1.000000	191.366542	-0.184056	35.147625	14.011667	0.631361
1.000000	43216.338110	236.502000	-20.166083	709938.437500	1.000000	191.453625	-0.216583	35.154208	14.013861	0.629877
1.000000	43216.345055	227.162792	-55.850972	723595.187500	1.000000	191.540667	-0.249083	35.160792	14.016056	0.628394
1.000000	43216.400610	241.384542	11.830056	704785.937500	1.000000	192.236833	-0.509111	35.213458	14.033611	0.616525
1.000000	43216.407555	235.886542	-24.177472	711272.312500	1.000000	192.323833	-0.541583	35.220042	14.035806	0.615041
1.000000	43216.414499	225.161958	-59.755139	724967.812500	1.000000	192.410792	-0.574056	35.226625	14.038000	0.613557
1.000000	43216.470055	240.848375	7.808417	704822.937500	1.000000	193.106292	-0.833694	35.279250	14.055528	0.601689
1.000000	43216.476999	235.226750	-28.185028	712710.500000	1.000000	193.193208	-0.866139	35.285833	14.057722	0.600205
1.000000	43216.483944	222.616208	-63.617861	726217.437500	1.000000	193.280083	-0.898556	35.292417	14.059917	0.598721
1.000000	43216.532555	246.733125	39.758306	708547.812500	1.000000	193.888125	-1.125389	35.338500	14.075250	0.588336
1.000000	43216.539499	240.323792	3.786444	705037.937500	1.000000	193.974958	-1.157778	35.345083	14.077444	0.586852
1.000000	43216.546444	234.510292	-32.187861	714230.625000	1.000000	194.061792	-1.190167	35.351667	14.079639	0.585369
1.000000	43216.553388	219.255125	-67.417917	727322.375000	1.000000	194.148625	-1.222528	35.358250	14.081833	0.583885
1.000000	43216.601999	245.861125	35.758444	707681.937500	1.000000	194.756125	-1.448944	35.404333	14.097139	0.573500
1.000000	43216.608944	239.804833	-0.235417	705433.687500	1.000000	194.842875	-1.481250	35.410917	14.099333	0.572016
1.000000	43216.615888	233.721667	-36.184861	715808.375000	1.000000	194.929625	-1.513583	35.417500	14.101528	0.570533
1.000000	43216.622833	214.612417	-71.117556	728263.375000	1.000000	195.016375	-1.545889	35.424083	14.103722	0.569049
1.000000	43216.671444	245.079458	31.752250	706891.375000	1.000000	195.623375	-1.771806	35.470208	14.119028	0.558664
1.000000	43216.678388	239.285542	-4.256750	706009.250000	1.000000	195.710083	-1.804056	35.476792	14.121194	0.557180
1.000000	43216.685333	232.840917	-40.174528	717418.125000	1.000000	195.796750	-1.836306	35.483375	14.123389	0.555697
1.000000	43216.692277	207.841125	-74.644139	729023.937500	1.000000	195.883458	-1.868528	35.489958	14.125583	0.554213
1.000000	43216.740888	244.368458	27.741250	706197.812500	1.000000	196.490000	-2.093944	35.536042	14.140889	0.543828
1.000000	43216.747833	238.760167	-8.277056	706760.125000	1.000000	196.576625	-2.126111	35.542625	14.143056	0.542344
1.000000	43216.754777	231.841708	-44.154972	719033.250000	1.000000	196.663250	-2.158278	35.549208	14.145250	0.540861
1.000000	43216.810333	243.713000	23.726528	705621.312500	1.000000	197.356000	-2.415250	35.601917	14.162722	0.528992
1.000000	43216.817277	238.222625	-12.295917	707678.437500	1.000000	197.442583	-2.447333	35.608500	14.164889	0.527508
1.000000	43216.824222	230.688167	-48.123528	720626.687500	1.000000	197.529125	-2.479417	35.615083	14.167083	0.526024
1.000000	43216.879777	243.100958	19.709056	705179.750000	1.000000	198.221417	-2.735667	35.667792	14.184528	0.514156
1.000000	43216.886722	237.666292	-16.312833	708752.687500	1.000000	198.307917	-2.767667	35.674375	14.186722	0.512672
1.000000	43216.893666	229.330250	-52.076500	722171.625000	1.000000	198.394417	-2.799639	35.680958	14.188889	0.511188
1.000000	43216.949222	242.522333	15.689556	704888.500000	1.000000	199.086292	-3.055139	35.733667	14.206333	0.499319
1.000000	43216.956166	237.083833	-20.327250	709968.312500	1.000000	199.172792	-3.087028	35.740292	14.208500	0.497836
1.000000	43216.963110	227.695750	-56.008500	723641.562500	1.000000	199.259250	-3.118889	35.746875	14.210694	0.496352
1.000000	43217.018666	241.968875	11.668639	704760.187500	1.000000	199.950708	-3.373528	35.799583	14.228111	0.484483
1.000000	43217.025610	236.466750	-24.338583	711307.687500	1.000000	200.037125	-3.405333	35.806167	14.230278	0.483000
1.000000	43217.032555	225.676583	-59.911306	725011.312500	1.000000	200.123542	-3.437083	35.812750	14.232472	0.481516
1.000000	43217.088110	241.433250	7.646917	704804.125000	1.000000	200.814708	-3.690833	35.865500	14.249861	0.469647
1.000000	43217.095055	235.804875	-28.346028	712750.562500	1.000000	200.901083	-3.722500	35.872083	14.252056	0.468164
1.000000	43217.101999	223.104000	-63.772000	726257.250000	1.000000	200.987458	-3.754167	35.878667	14.254222	0.466680
1.000000	43217.150610	247.302625	39.597944	708491.687500	1.000000	201.591958	-3.975389	35.924833	14.269444	0.456295
1.000000	43217.157555	240.908958	3.624861	705026.375000	1.000000	201.678292	-4.006944	35.931417	14.271611	0.454811
1.000000	43217.164499	235.085792	-32.348722	714274.562500	1.000000	201.764625	-4.038500	35.938000	14.273778	0.453327
1.000000	43217.171444	219.701833	-67.568917	727357.687500	1.000000	201.850958	-4.070028	35.944583	14.275972	0.451844
1.000000	43217.220055	246.434625	35.597722	707627.500000	1.000000	202.455208	-4.290389	35.990750	14.291167	0.441459
1.000000	43217.226999	240.390042	-0.397056	705429.562500	1.000000	202.541500	-4.321806	35.997333	14.293333	0.439975
1.000000	43217.233944	234.293792	-36.345500	715855.312500	1.000000	202.627833	-4.353222	36.003917	14.295500	0.438491
1.000000	43217.240888	214.993042	-71.263333	728293.437500	1.000000	202.714125	-4.384611	36.010542	14.297667	0.437008
1.000000	43217.289499	245.656042	31.591278	706839.625000	1.000000	203.318167	-4.604028	36.056667	14.312861	0.426622
1.000000	43217.296444	239.870583	-4.418389	706012.562500	1.000000	203.404458	-4.635333	36.063292	14.315056	0.425139
1.000000	43217.303388	233.408792	-40.334889	717467.125000	1.000000	203.490708	-4.666611	36.069875	14.317222	0.423655
1.000000	43217.310333	208.109125	-74.780528	729048.312500	1.000000	203.577000	-4.697861	36.076458	14.319389	0.422172
1.000000	43217.358944	244.947500	27.580028	706149.687500	1.000000	204.180833	-4.916306	36.122625	14.334556	0.411786
1.000000	43217.365888	239.344792	-8.438750	706770.875000	1.000000	204.267083	-4.947444	36.129208	14.336722	0.410303
1.000000	43217.372833	232.404000	-44.314972	719083.312500	1.000000	204.353333	-4.978583	36.135833	14.338889	0.408819
1.000000	43217.428388	244.293917	23.565111	705577.750000	1.000000	205.043292	-5.227111	36.188583	14.356222	0.396950
1.000000	43217.435333	238.806542	-12.457583	707696.250000	1.000000	205.129542	-5.258111	36.195167	14.358389	0.395467
1.000000	43217.442277	231.243250	-48.283028	720676.812500	1.000000	205.215750	-5.289111	36.201792	14.360556	0.393983
1.000000	43217.497833	243.683333	19.547472	705141.562500	1.000000	205.905542	-5.536389	36.254542	14.377889	0.382114
1.000000	43217.504777	238.249292	-16.474472	708777.187500	1.000000	205.991792	-5.567250	36.261167	14.380028	0.380631
1.000000	43217.511722	229.875667	-52.235333	722220.750000	1.000000	206.078000	-5.598056	36.267750	14.382194	0.379147
1.000000	43217.567277	243.105833	15.527833	704856.375000	1.000000	206.767667	-5.844083	36.320542	14.399500	0.367278
1.000000	43217.574222	237.665542	-20.488861	709998.937500	1.000000	206.853875	-5.874750	36.327125	14.401667	0.365794
1.000000	43217.581166	228.227917	-56.166361	723688.750000	1.000000	206.940083	-5.905417	36.333750	14.403833	0.364311
1.000000	43217.636722	242.553167	11.506833	704734.625000	1.000000	207.629667	-6.150083	36.386542	14.421111	0.352442
1.000000	43217.643666	237.046833	-24.500083	711343.812500	1.000000	207.715875	-6.180583	36.393125	14.423278	0.350958
1.000000	43217.650610	226.190083	-60.067806	725055.625000	1.000000	207.802042	-6.211083	36.399708	14.425444	0.349475
1.000000	43217.706166	242.018042	7.485028	704785.625000	1.000000	208.491583	-6.454361	36.452542	14.442722	0.337606
1.000000	43217.713110	236.382833	-28.507444	712791.500000	1.000000	208.577792	-6.484694	36.459125	14.444861	0.336122
1.000000	43217.720055	223.590167	-63.926444	726297.812500	1.000000	208.663958	-6.515000	36.465750	14.447028	0.334639
1.000000	43217.768666	247.872167	39.437139	708435.062500	1.000000	209.267292	-6.726667	36.511958	14.462139	0.324253
1.000000	43217.775610	241.494083	3.462889	705015.250000	1.000000	209.353458	-6.756833	36.518542	14.464278	0.322770
1.000000	43217.782555	235.661042	-32.509972	714319.375000	1.000000	209.439667	-6.786972	36.525125	14.466444	0.321286
1.000000	43217.789499	220.146125	-67.720167	727393.687500	1.000000	209.525833	-6.817083	36.531750	14.468583	0.319803
1.000000	43217.838110	247.008125	35.436583	707572.687500	1.000000	210.129167	-7.027444	36.577958	14.483667	0.309417
1.000000	43217.845055	240.975167	-0.559083	705425.937500	1.000000	210.215333	-7.057417	36.584542	14.485833	0.307934
1.000000	43217.851999	234.865667	-36.506528	715903.187500	1.000000	210.301542	-7.087361	36.591167	14.488000	0.306450
1.000000	43217.858944	215.369667	-71.409222	728324.250000	1.000000	210.387750	-7.117306	36.597750	14.490139	0.304966
1.000000	43217.907555	246.232625	31.429861	706787.625000	1.000000	210.991083	-7.326306	36.644000	14.505222	0.294581
1.000000	43217.914499	240.455542	-4.580472	706016.500000	1.000000	211.077250	-7.356083	36.650583	14.507361	0.293098
1.000000	43217.921444	233.976333	-40.495667	717517.000000	1.000000	211.163458	-7.385833	36.657208	14.509528	0.291614
1.000000	43217.928388	208.370292	-74.916778	729073.312500	1.000000	211.249667	-7.415583	36.663792	14.511667	0.290130
1.000000	43217.976999	245.526500	27.418389	706101.437500	1.000000	211.853042	-7.623167	36.710042	14.526722	0.279745
1.000000	43217.983944	239.929333	-8.600833	706782.187500	1.000000	211.939250	-7.652750	36.716625	14.528889	0.278261
1.000000	43217.990888	232.965958	-44.475361	719134.250000	1.000000	212.025458	-7.682306	36.723250	14.531028	0.276778
1.000000	43218.046444	244.874833	23.403278	705534.187500	1.000000	212.715125	-7.917972	36.776083	14.548222	0.264909
1.000000	43218.053388	239.390417	-12.619667	707714.687500	1.000000	212.801333	-7.947333	36.782667	14.550389	0.263425
1.000000	43218.060333	231.797833	-48.442917	720727.750000	1.000000	212.887542	-7.976694	36.789292	14.552528	0.261942
1.000000	43218.115888	244.265708	19.385472	705103.375000	1.000000	213.577333	-8.210667	36.842125	14.569694	0.250073
1.000000	43218.122833	238.832167	-16.636556	708802.375000	1.000000	213.663542	-8.239806	36.848750	14.571861	0.248589
1.000000	43218.129777	230.420458	-52.394500	722270.750000	1.000000	213.749792	-8.268944	36.855375	14.574000	0.247106
1.000000	43218.185333	243.689292	15.365694	704824.375000	1.000000	214.439667	-8.501167	36.908208	14.591167	0.235237
1.000000	43218.192277	238.247167	-20.650861	710030.375000	1.000000	214.525917	-8.530083	36.914833	14.593306	0.233753
1.000000	43218.199222	228.759292	-56.324556	723736.812500	1.000000	214.612167	-8.559000	36.921417	14.595444	0.232270
1.000000	43218.254777	243.137417	11.344583	704709.312500	1.000000	215.302208	-8.789389	36.974292	14.612611	0.220401
1.000000	43218.261722	237.626750	-24.662028	711380.750000	1.000000	215.388500	-8.818111	36.980917	14.614750	0.218917
1.000000	43218.268666	226.702458	-60.224611	725100.750000	1.000000	215.474750	-8.846778	36.987500	14.616889	0.217433
1.000000	43218.324222	242.602833	7.322694	704767.500000	1.000000	216.165000	-9.075333	37.040375	14.634028	0.205565
1.000000	43218.331166	236.960625	-28.669250	712833.250000	1.000000	216.251292	-9.103806	37.047000	14.636167	0.204081
1.000000	43218.338110	224.074667	-64.081167	726339.187500	1.000000	216.337583	-9.132250	37.053625	14.638306	0.202597
1.000000	43218.386722	248.441792	39.275944	708378.000000	1.000000	216.941708	-9.330667	37.099875	14.653278	0.192212
1.000000	43218.393666	242.079125	3.300500	705004.562500	1.000000	217.028000	-9.358917	37.106500	14.655417	0.190728
1.000000	43218.400610	236.236125	-32.671611	714365.125000	1.000000	217.114333	-9.387139	37.113125	14.657556	0.189245
1.000000	43218.407555	220.587875	-67.871611	727430.500000	1.000000	217.200667	-9.415333	37.119708	14.659694	0.187761
1.000000	43218.456166	247.581667	35.275028	707517.500000	1.000000	217.804958	-9.612028	37.166000	14.674667	0.177376
1.000000	43218.463110	241.560250	-0.721556	705422.875000	1.000000	217.891333	-9.640028	37.172625	14.676806	0.175892
1.000000	43218.470055	235.437333	-36.667972	715951.875000	1.000000	217.977667	-9.668000	37.179208	14.678944	0.174409
1.000000	43218.476999	215.742208	-71.555167	728355.812500	1.000000	218.064000	-9.695972	37.185833	14.681083	0.172925
1.000000	43218.525610	246.809250	31.268028	706735.375000	1.000000	218.668542	-9.890917	37.232125	14.696028	0.162540
1.000000	43218.532555	241.040417	-4.742972	706021.062500	1.000000	218.754917	-9.918667	37.238750	14.698167	0.161056
1.000000	43218.539499	234.543583	-40.656806	717567.750000	1.000000	218.841292	-9.946389	37.245333	14.700306	0.159573
1.000000	43218.546444	208.624417	-75.052778	729098.937500	1.000000	218.927667	-9.974083	37.251958	14.702444	0.158089
1.000000	43218.595055	246.105542	27.256306	706053.062500	1.000000	219.532417	-10.167278	37.298250	14.717389	0.147704
1.000000	43218.601999	240.513792	-8.763333	706794.187500	1.000000	219.618833	-10.194750	37.304875	14.719500	0.146220
1.000000	43218.608944	233.527542	-44.636139	719186.062500	1.000000	219.705250	-10.222222	37.311500	14.721639	0.144737
1.000000	43218.664499	245.455750	23.241028	705490.562500	1.000000	220.396667	-10.441000	37.364417	14.738694	0.132868
1.000000	43218.671444	239.974167	-12.782167	707733.937500	1.000000	220.483125	-10.468222	37.371042	14.740833	0.131384
1.000000	43218.678388	232.352000	-48.603167	720779.625000	1.000000	220.569542	-10.495444	37.377625	14.742972	0.129900
1.000000	43218.733944	244.848042	19.223056	705065.375000	1.000000	221.261292	-10.712083	37.430583	14.760000	0.118032
1.000000	43218.740888	239.414917	-16.799000	708828.437500	1.000000	221.347750	-10.739056	37.437167	14.762139	0.116548
1.000000	43218.747833	230.964667	-52.554056	722321.562500	1.000000	221.434250	-10.765972	37.443792	14.764278	0.115064
1.000000	43218.803388	244.272750	15.203139	704792.562500	1.000000	222.126292	-10.980444	37.496750	14.781306	0.103195
1.000000	43218.810333	238.828625	-20.813278	710062.625000	1.000000	222.212792	-11.007111	37.503333	14.783417	0.101712
1.000000	43218.817277	229.289833	-56.483139	723785.625000	1.000000	222.299333	-11.033778	37.509958	14.785556	0.100228
1.000000	43218.872833	243.721625	11.181917	704684.312500	1.000000	222.991708	-11.246028	37.562917	14.802556	0.088359
1.000000	43218.879777	238.206500	-24.824361	711418.625000	1.000000	223.078250	-11.272417	37.569542	14.804694	0.086876
1.000000	43218.886722	227.213667	-60.381750	725146.687500	1.000000	223.164833	-11.298806	37.576167	14.806806	0.085392
1.000000	43218.942277	243.187583	7.159944	704749.750000	1.000000	223.857542	-11.508778	37.629083	14.823806	0.073523
1.000000	43218.949222	237.538250	-28.831472	712875.937500	1.000000	223.944167	-11.534889	37.635708	14.825917	0.072040
1.000000	43218.956166	224.557500	-64.236194	726381.312500	1.000000	224.030792	-11.560972	37.642333	14.828056	0.070556
1.000000	43219.004777	249.011458	39.114306	708320.500000	1.000000	224.637208	-11.742778	37.688667	14.842917	0.060171
1.000000	43219.011722	242.664125	3.137667	704994.375000	1.000000	224.723875	-11.768639	37.695292	14.845028	0.058687
1.000000	43219.018666	236.811042	-32.833667	714411.750000	1.000000	224.810500	-11.794444	37.701917	14.847139	0.057204
1.000000	43219.025610	221.027042	-68.023250	727468.000000	1.000000	224.897167	-11.820250	37.708542	14.849278	0.055720
1.000000	43219.074222	248.155292	35.113056	707462.000000	1.000000	225.503958	-12.000000	37.754875	14.864111	0.045335
1.000000	43219.081166	242.145292	-0.884417	705420.312500	1.000000	225.590625	-12.025556	37.761500	14.866250	0.043851
1.000000	43219.088110	236.008750	-36.829806	716001.562500	1.000000	225.677333	-12.051083	37.768125	14.868361	0.042367
1.000000	43219.095055	216.110542	-71.701194	728388.000000	1.000000	225.764042	-12.076583	37.774750	14.870472	0.040884
1.000000	43219.143666	247.385917	31.105778	706682.875000	1.000000	226.371167	-12.254222	37.821125	14.885306	0.030499
1.000000	43219.150610	241.625250	-4.905861	706026.250000	1.000000	226.457917	-12.279472	37.827750	14.887417	0.029015
1.000000	43219.157555	235.110542	-40.818361	717619.500000	1.000000	226.544667	-12.304694	37.834333	14.889528	0.027531
1.000000	43219.164499	208.871292	-75.188583	729125.312500	1.000000	226.631417	-12.329917	37.840958	14.891667	0.026048
1.000000	43219.213110	246.684542	27.093833	706004.625000	1.000000	227.238875	-12.505417	37.887333	14.906472	0.015662
1.000000	43219.220055	241.098125	-8.926250	706806.937500	1.000000	227.325667	-12.530361	37.893958	14.908583	0.014179
1.000000	43219.226999	234.088792	-44.797278	719238.812500	1.000000	227.412458	-12.555278	37.900583	14.910694	0.012695
1.000000	43219.282555	246.036625	23.078361	705446.937500	1.000000	228.107083	-12.753500	37.953583	14.927611	0.000826
1.000000	43219.289499	240.557833	-12.945083	707753.937500	1.000000	228.193917	-12.778139	37.960208	14.929750	0.000657
1.000000	43219.296444	232.905667	-48.763806	720832.375000	1.000000	228.280792	-12.802750	37.966833	14.931861	0.002141
1.000000	43219.351999	245.430375	19.060222	705027.437500	1.000000	228.975833	-12.998472	38.019833	14.948750	0.014010
1.000000	43219.358944	239.997583	-16.961889	708855.250000	1.000000	229.062750	-13.022778	38.026458	14.950861	0.015493
1.000000	43219.365888	231.508250	-52.713972	722373.312500	1.000000	229.149667	-13.047056	38.033083	14.952972	0.016977
1.000000	43219.421444	244.856167	15.040194	704761.000000	1.000000	229.845125	-13.240222	38.086083	14.969861	0.028846
1.000000	43219.428388	239.409958	-20.976111	710095.750000	1.000000	229.932083	-13.264222	38.092708	14.971972	0.030330
1.000000	43219.435333	229.819542	-56.642028	723835.375000	1.000000	230.019042	-13.288194	38.099333	14.974083	0.031813
1.000000	43219.490888	244.305833	11.018861	704659.687500	1.000000	230.714958	-13.478722	38.152375	14.990944	0.043682
1.000000	43219.497833	238.786125	-24.987083	711457.375000	1.000000	230.801958	-13.502417	38.159000	14.993056	0.045166
1.000000	43219.504777	227.723708	-60.539222	725193.437500	1.000000	230.889000	-13.526028	38.165625	14.995167	0.046649
1.000000	43219.560333	243.772250	6.996778	704732.437500	1.000000	231.585333	-13.713944	38.218667	15.012028	0.058518
1.000000	43219.567277	238.115667	-28.994083	712919.500000	1.000000	231.672417	-13.737306	38.225292	15.014139	0.060002
1.000000	43219.574222	225.038625	-64.391472	726424.187500	1.000000	231.759500	-13.760611	38.231917	15.016222	0.061485
1.000000	43219.622833	249.581208	38.952250	708262.625000	1.000000	232.369167	-13.922806	38.278333	15.030972	0.071871
1.000000	43219.629777	243.249083	2.974444	704984.687500	1.000000	232.456292	-13.945833	38.284958	15.033083	0.073354
1.000000	43219.636722	237.385708	-32.996139	714459.312500	1.000000	232.543417	-13.968833	38.291583	15.035167	0.074838
1.000000	43219.643666	221.463583	-68.175111	727506.250000	1.000000	232.630583	-13.991806	38.298208	15.037278	0.076321
1.000000	43219.692277	248.728917	34.950667	707406.250000	1.000000	233.240667	-14.151639	38.344625	15.052000	0.086707
1.000000	43219.699222	242.730250	-1.047694	705418.437500	1.000000	233.327833	-14.174333	38.351250	15.054111	0.088190
1.000000	43219.706166	236.579917	-36.992056	716052.125000	1.000000	233.415000	-14.197000	38.357875	15.056194	0.089674
1.000000	43219.713110	216.474583	-71.847278	728420.937500	1.000000	233.502208	-14.219611	38.364500	15.058306	0.091158
1.000000	43219.761722	247.962542	30.943083	706630.250000	1.000000	234.112708	-14.377056	38.410958	15.073000	0.101543
1.000000	43219.768666	242.210000	-5.069167	706032.062500	1.000000	234.199917	-14.399389	38.417583	15.075111	0.103026
1.000000	43219.775610	235.677208	-40.980306	717672.125000	1.000000	234.287167	-14.421722	38.424208	15.077222	0.104510
1.000000	43219.782555	209.110792	-75.324167	729152.312500	1.000000	234.374417	-14.444000	38.430833	15.079306	0.105994
1.000000	43219.831166	247.263583	26.930917	705956.125000	1.000000	234.985333	-14.598972	38.477250	15.094000	0.116379
1.000000	43219.838110	241.682417	-9.089556	706820.437500	1.000000	235.072625	-14.620972	38.483917	15.096111	0.117863
1.000000	43219.845055	234.649625	-44.958833	719292.437500	1.000000	235.159917	-14.642944	38.490542	15.098194	0.119346
1.000000	43219.900610	246.617500	22.915250	705403.437500	1.000000	235.858542	-14.817417	38.543625	15.114972	0.131215
1.000000	43219.907555	241.141375	-13.108389	707774.750000	1.000000	235.945875	-14.839056	38.550250	15.117083	0.132699
1.000000	43219.914499	233.458875	-48.924806	720886.000000	1.000000	236.033250	-14.860667	38.556875	15.119167	0.134182
1.000000	43219.970055	246.012667	18.896972	704989.687500	1.000000	236.732333	-15.032278	38.609958	15.135917	0.146051
1.000000	43219.976999	240.580125	-17.125167	708882.937500	1.000000	236.819750	-15.053556	38.616583	15.138028	0.147535
1.000000	43219.983944	232.051167	-52.874250	722425.937500	1.000000	236.907167	-15.074806	38.623250	15.140111	0.149018
1.000000	43220.039499	245.439542	14.876806	704729.687500	1.000000	237.606708	-15.243528	38.676333	15.156861	0.160887
1.000000	43220.046444	239.991167	-21.139333	710129.750000	1.000000	237.694167	-15.264444	38.682958	15.158944	0.162371
1.000000	43220.053388	230.348375	-56.801306	723885.937500	1.000000	237.781625	-15.285333	38.689583	15.161056	0.163854
1.000000	43220.108944	244.889958	10.855361	704635.375000	1.000000	238.481667	-15.451139	38.742708	15.177778	0.175723
1.000000	43220.115888	239.365625	-25.150222	711497.000000	1.000000	238.569167	-15.471694	38.749333	15.179861	0.177207
1.000000	43220.122833	228.232542	-60.697000	725241.000000	1.000000	238.656708	-15.492222	38.755958	15.181944	0.178691
1.000000	43220.178388	244.356875	6.833194	704715.562500	1.000000	239.357208	-15.655056	38.809083	15.198667	0.190559
1.000000	43220.185333	238.692958	-29.157111	712964.000000	1.000000	239.444792	-15.675250	38.815708	15.200750	0.192043
1.000000	43220.192277	225.518000	-64.547028	726467.875000	1.000000	239.532375	-15.695417	38.822333	15.202833	0.193527
1.000000	43220.240888	250.151042	38.789750	708204.437500	1.000000	240.145667	-15.835417	38.868833	15.217444	0.203912
1.000000	43220.247833	243.833958	2.810778	704975.500000	1.000000	240.233333	-15.855278	38.875458	15.219528	0.205396
1.000000	43220.254777	237.960167	-33.158972	714507.812500	1.000000	240.320958	-15.875083	38.882125	15.221611	0.206879
1.000000	43220.261722	221.897417	-68.327167	727545.312500	1.000000	240.408625	-15.894861	38.888750	15.223694	0.208363
1.000000	43220.310333	249.302583	34.787833	707350.250000	1.000000	241.022333	-16.032250	38.935250	15.238306	0.218748
1.000000	43220.317277	243.315125	-1.211389	705417.125000	1.000000	241.110042	-16.051722	38.941875	15.240389	0.220232
1.000000	43220.324222	237.150792	-37.154667	716103.687500	1.000000	241.197708	-16.071139	38.948500	15.242472	0.221715
1.000000	43220.331166	216.834167	-71.993389	728454.562500	1.000000	241.285417	-16.090556	38.955167	15.244556	0.223199
1.000000	43220.379777	248.539250	30.780000	706577.500000	1.000000	241.899542	-16.225250	39.001625	15.259139	0.233584
1.000000	43220.386722	242.794667	-5.232889	706038.625000	1.000000	241.987292	-16.244361	39.008292	15.261222	0.235068
1.000000	43220.393666	236.243583	-41.142611	717725.687500	1.000000	242.075042	-16.263417	39.014917	15.263306	0.236551
1.000000	43220.400610	209.342708	-75.459472	729179.937500	1.000000	242.162792	-16.282417	39.021583	15.265389	0.238035
1.000000	43220.449222	247.842625	26.767583	705907.562500	1.000000	242.777292	-16.414444	39.068083	15.279944	0.248420
1.000000	43220.456166	242.266625	-9.253306	706834.687500	1.000000	242.865125	-16.433167	39.074708	15.282028	0.249904
1.000000	43220.463110	235.210083	-45.120750	719347.062500	1.000000	242.952917	-16.451833	39.081375	15.284111	0.251387
1.000000	43220.518666	247.198375	22.751750	705360.000000	1.000000	243.655625	-16.599778	39.134500	15.300750	0.263256
1.000000	43220.525610	241.724833	-13.272139	707796.375000	1.000000	243.743500	-16.618083	39.141167	15.302806	0.264740
1.000000	43220.532555	234.011583	-49.086194	720940.562500	1.000000	243.831375	-16.636361	39.147792	15.304889	0.266224
1.000000	43220.588110	246.594958	18.733306	704952.125000	1.000000	244.534500	-16.781194	39.200958	15.321500	0.278092
1.000000	43220.595055	241.162583	-17.288861	708911.500000	1.000000	244.622417	-16.799111	39.207583	15.323583	0.279576
1.000000	43220.601999	232.593458	-53.034889	722479.437500	1.000000	244.710375	-16.817000	39.214250	15.325667	0.281060
1.000000	43220.657555	246.022875	14.713000	704698.687500	1.000000	245.413917	-16.958667	39.267417	15.342278	0.292929
1.000000	43220.664499	240.572250	-21.302972	710164.687500	1.000000	245.501917	-16.976194	39.274042	15.344333	0.294412
1.000000	43220.671444	230.876333	-56.960889	723937.375000	1.000000	245.589875	-16.993667	39.280708	15.346417	0.295896
1.000000	43220.726999	245.474042	10.691444	704611.500000	1.000000	246.293875	-17.132167	39.333875	15.363000	0.307765
1.000000	43220.733944	239.944958	-25.313778	711537.625000	1.000000	246.381917	-17.149306	39.340542	15.365056	0.309248
1.000000	43220.740888	228.740167	-60.855083	725289.437500	1.000000	246.469917	-17.166389	39.347167	15.367139	0.310732
1.000000	43220.796444	244.941500	6.669194	704699.187500	1.000000	247.174333	-17.301667	39.400375	15.383694	0.322601
1.000000	43220.803388	239.270042	-29.320528	713009.500000	1.000000	247.262417	-17.318389	39.407000	15.385778	0.324084
1.000000	43220.810333	225.995583	-64.702861	726512.375000	1.000000	247.350500	-17.335083	39.413667	15.387833	0.325568
1.000000	43220.858944	250.720958	38.626861	708145.875000	1.000000	247.967167	-17.450778	39.460208	15.402333	0.335953
1.000000	43220.865888	244.418792	2.646722	704967.000000	1.000000	248.055292	-17.467139	39.466833	15.404389	0.337437
1.000000	43220.872833	238.534417	-33.322222	714557.312500	1.000000	248.143417	-17.483444	39.473500	15.406472	0.338920
1.000000	43220.879777	222.328458	-68.479389	727585.062500	1.000000	248.231542	-17.499722	39.480167	15.408528	0.340404
1.000000	43220.928388	249.876292	34.624583	707294.062500	1.000000	248.848583	-17.612583	39.526708	15.423000	0.350789
1.000000	43220.935333	243.899958	-1.375500	705416.562500	1.000000	248.936750	-17.628528	39.533375	15.425056	0.352273
1.000000	43220.942277	237.721458	-37.317694	716156.250000	1.000000	249.024917	-17.644444	39.540000	15.427139	0.353757
1.000000	43220.949222	217.189250	-72.139556	728488.875000	1.000000	249.113083	-17.660333	39.546667	15.429194	0.355240
1.000000	43220.997833	249.115958	30.616472	706524.687500	1.000000	249.730417	-17.770306	39.593208	15.443667	0.365625
1.000000	43221.004777	243.379250	-5.397028	706045.937500	1.000000	249.818625	-17.785833	39.599875	15.445722	0.367109
1.000000	43221.011722	236.809625	-41.305333	717780.250000	1.000000	249.906875	-17.801333	39.606542	15.447778	0.368593
1.000000	43221.018666	209.566792	-75.594500	729208.250000	1.000000	249.995083	-17.816806	39.613167	15.449833	0.370076
